#  E (eV)   dos(E)     Int dos(E)
  5.000  0.0000E+00  0.0000E+00
  5.010  0.0000E+00  0.0000E+00
  5.020  0.0000E+00  0.0000E+00
  5.030  0.0000E+00  0.0000E+00
  5.040  0.0000E+00  0.0000E+00
  5.050  0.0000E+00  0.0000E+00
  5.060  0.0000E+00  0.0000E+00
  5.070  0.0000E+00  0.0000E+00
  5.080  0.0000E+00  0.0000E+00
  5.090  0.0000E+00  0.0000E+00
  5.100  0.0000E+00  0.0000E+00
  5.110  0.0000E+00  0.0000E+00
  5.120  0.0000E+00  0.0000E+00
  5.130  0.0000E+00  0.0000E+00
  5.140  0.0000E+00  0.0000E+00
  5.150  0.0000E+00  0.0000E+00
  5.160  0.0000E+00  0.0000E+00
  5.170  0.0000E+00  0.0000E+00
  5.180  0.0000E+00  0.0000E+00
  5.190  0.0000E+00  0.0000E+00
  5.200  0.0000E+00  0.0000E+00
  5.210  0.0000E+00  0.0000E+00
  5.220  0.0000E+00  0.0000E+00
  5.230  0.0000E+00  0.0000E+00
  5.240  0.0000E+00  0.0000E+00
  5.250  0.0000E+00  0.0000E+00
  5.260  0.0000E+00  0.0000E+00
  5.270  0.0000E+00  0.0000E+00
  5.280  0.0000E+00  0.0000E+00
  5.290  0.0000E+00  0.0000E+00
  5.300  0.0000E+00  0.0000E+00
  5.310  0.0000E+00  0.0000E+00
  5.320  0.0000E+00  0.0000E+00
  5.330  0.0000E+00  0.0000E+00
  5.340  0.0000E+00  0.0000E+00
  5.350  0.0000E+00  0.0000E+00
  5.360  0.0000E+00  0.0000E+00
  5.370  0.0000E+00  0.0000E+00
  5.380  0.0000E+00  0.0000E+00
  5.390  0.0000E+00  0.0000E+00
  5.400  0.0000E+00  0.0000E+00
  5.410  0.0000E+00  0.0000E+00
  5.420  0.0000E+00  0.0000E+00
  5.430  0.0000E+00  0.0000E+00
  5.440  0.0000E+00  0.0000E+00
  5.450  0.0000E+00  0.0000E+00
  5.460  0.0000E+00  0.0000E+00
  5.470  0.0000E+00  0.0000E+00
  5.480  0.0000E+00  0.0000E+00
  5.490  0.0000E+00  0.0000E+00
  5.500  0.0000E+00  0.0000E+00
  5.510  0.0000E+00  0.0000E+00
  5.520  0.0000E+00  0.0000E+00
  5.530  0.0000E+00  0.0000E+00
  5.540  0.0000E+00  0.0000E+00
  5.550  0.0000E+00  0.0000E+00
  5.560  0.0000E+00  0.0000E+00
  5.570  0.0000E+00  0.0000E+00
  5.580  0.0000E+00  0.0000E+00
  5.590  0.0000E+00  0.0000E+00
  5.600  0.0000E+00  0.0000E+00
  5.610  0.0000E+00  0.0000E+00
  5.620  0.0000E+00  0.0000E+00
  5.630  0.0000E+00  0.0000E+00
  5.640  0.0000E+00  0.0000E+00
  5.650  0.0000E+00  0.0000E+00
  5.660  0.0000E+00  0.0000E+00
  5.670  0.0000E+00  0.0000E+00
  5.680  0.0000E+00  0.0000E+00
  5.690  0.0000E+00  0.0000E+00
  5.700  0.0000E+00  0.0000E+00
  5.710  0.0000E+00  0.0000E+00
  5.720  0.0000E+00  0.0000E+00
  5.730  0.0000E+00  0.0000E+00
  5.740  0.0000E+00  0.0000E+00
  5.750  0.0000E+00  0.0000E+00
  5.760  0.0000E+00  0.0000E+00
  5.770  0.0000E+00  0.0000E+00
  5.780  0.0000E+00  0.0000E+00
  5.790  0.0000E+00  0.0000E+00
  5.800  0.0000E+00  0.0000E+00
  5.810  0.0000E+00  0.0000E+00
  5.820  0.0000E+00  0.0000E+00
  5.830  0.0000E+00  0.0000E+00
  5.840  0.0000E+00  0.0000E+00
  5.850  0.0000E+00  0.0000E+00
  5.860  0.0000E+00  0.0000E+00
  5.870  0.3315E-04  0.3315E-06
  5.880  0.1917E-03  0.2249E-05
  5.890  0.4812E-03  0.7061E-05
  5.900  0.9015E-03  0.1608E-04
  5.910  0.1453E-02  0.3060E-04
  5.920  0.2135E-02  0.5195E-04
  5.930  0.2947E-02  0.8142E-04
  5.940  0.3891E-02  0.1203E-03
  5.950  0.1076E-01  0.2280E-03
  5.960  0.1221E-01  0.3501E-03
  5.970  0.1348E-01  0.4849E-03
  5.980  0.1455E-01  0.6304E-03
  5.990  0.1544E-01  0.7848E-03
  6.000  0.1613E-01  0.9461E-03
  6.010  0.1664E-01  0.1112E-02
  6.020  0.1696E-01  0.1282E-02
  6.030  0.1718E-01  0.1454E-02
  6.040  0.1764E-01  0.1630E-02
  6.050  0.1836E-01  0.1814E-02
  6.060  0.1934E-01  0.2007E-02
  6.070  0.2059E-01  0.2213E-02
  6.080  0.2210E-01  0.2434E-02
  6.090  0.2388E-01  0.2673E-02
  6.100  0.2592E-01  0.2932E-02
  6.110  0.2678E-01  0.3200E-02
  6.120  0.2723E-01  0.3472E-02
  6.130  0.2772E-01  0.3749E-02
  6.140  0.2824E-01  0.4032E-02
  6.150  0.2880E-01  0.4320E-02
  6.160  0.2939E-01  0.4614E-02
  6.170  0.3002E-01  0.4914E-02
  6.180  0.3069E-01  0.5221E-02
  6.190  0.3131E-01  0.5534E-02
  6.200  0.3178E-01  0.5852E-02
  6.210  0.3208E-01  0.6173E-02
  6.220  0.3222E-01  0.6495E-02
  6.230  0.3220E-01  0.6817E-02
  6.240  0.3201E-01  0.7137E-02
  6.250  0.3167E-01  0.7454E-02
  6.260  0.3117E-01  0.7765E-02
  6.270  0.3189E-01  0.8084E-02
  6.280  0.3273E-01  0.8411E-02
  6.290  0.3365E-01  0.8748E-02
  6.300  0.3467E-01  0.9095E-02
  6.310  0.3578E-01  0.9453E-02
  6.320  0.3698E-01  0.9822E-02
  6.330  0.3827E-01  0.1021E-01
  6.340  0.3963E-01  0.1060E-01
  6.350  0.4086E-01  0.1101E-01
  6.360  0.4193E-01  0.1143E-01
  6.370  0.4284E-01  0.1186E-01
  6.380  0.4358E-01  0.1229E-01
  6.390  0.4416E-01  0.1273E-01
  6.400  0.4458E-01  0.1318E-01
  6.410  0.4484E-01  0.1363E-01
  6.420  0.4179E-01  0.1405E-01
  6.430  0.4262E-01  0.1447E-01
  6.440  0.4338E-01  0.1491E-01
  6.450  0.4407E-01  0.1535E-01
  6.460  0.4468E-01  0.1579E-01
  6.470  0.4523E-01  0.1625E-01
  6.480  0.4570E-01  0.1670E-01
  6.490  0.4610E-01  0.1716E-01
  6.500  0.4645E-01  0.1763E-01
  6.510  0.4679E-01  0.1810E-01
  6.520  0.4715E-01  0.1857E-01
  6.530  0.4750E-01  0.1904E-01
  6.540  0.4787E-01  0.1952E-01
  6.550  0.4823E-01  0.2000E-01
  6.560  0.4861E-01  0.2049E-01
  6.570  0.4876E-01  0.2098E-01
  6.580  0.4875E-01  0.2147E-01
  6.590  0.4888E-01  0.2195E-01
  6.600  0.4912E-01  0.2245E-01
  6.610  0.4949E-01  0.2294E-01
  6.620  0.4999E-01  0.2344E-01
  6.630  0.5061E-01  0.2395E-01
  6.640  0.5136E-01  0.2446E-01
  6.650  0.5220E-01  0.2498E-01
  6.660  0.5310E-01  0.2551E-01
  6.670  0.5406E-01  0.2605E-01
  6.680  0.5507E-01  0.2660E-01
  6.690  0.5614E-01  0.2717E-01
  6.700  0.5727E-01  0.2774E-01
  6.710  0.5845E-01  0.2832E-01
  6.720  0.5885E-01  0.2891E-01
  6.730  0.5916E-01  0.2950E-01
  6.740  0.5946E-01  0.3010E-01
  6.750  0.5977E-01  0.3070E-01
  6.760  0.6008E-01  0.3130E-01
  6.770  0.6039E-01  0.3190E-01
  6.780  0.6070E-01  0.3251E-01
  6.790  0.6100E-01  0.3312E-01
  6.800  0.6125E-01  0.3373E-01
  6.810  0.6142E-01  0.3434E-01
  6.820  0.6151E-01  0.3496E-01
  6.830  0.6152E-01  0.3557E-01
  6.840  0.6146E-01  0.3619E-01
  6.850  0.6133E-01  0.3680E-01
  6.860  0.6142E-01  0.3742E-01
  6.870  0.6188E-01  0.3804E-01
  6.880  0.6234E-01  0.3866E-01
  6.890  0.6280E-01  0.3929E-01
  6.900  0.6326E-01  0.3992E-01
  6.910  0.6372E-01  0.4056E-01
  6.920  0.6418E-01  0.4120E-01
  6.930  0.6464E-01  0.4184E-01
  6.940  0.6510E-01  0.4250E-01
  6.950  0.6556E-01  0.4315E-01
  6.960  0.6602E-01  0.4381E-01
  6.970  0.6647E-01  0.4448E-01
  6.980  0.6693E-01  0.4515E-01
  6.990  0.6738E-01  0.4582E-01
  7.000  0.6784E-01  0.4650E-01
  7.010  0.6832E-01  0.4718E-01
  7.020  0.6887E-01  0.4787E-01
  7.030  0.6941E-01  0.4856E-01
  7.040  0.6993E-01  0.4926E-01
  7.050  0.7045E-01  0.4997E-01
  7.060  0.7095E-01  0.5068E-01
  7.070  0.7146E-01  0.5139E-01
  7.080  0.7201E-01  0.5211E-01
  7.090  0.7262E-01  0.5284E-01
  7.100  0.7329E-01  0.5357E-01
  7.110  0.7402E-01  0.5431E-01
  7.120  0.7480E-01  0.5506E-01
  7.130  0.7564E-01  0.5582E-01
  7.140  0.7654E-01  0.5658E-01
  7.150  0.7693E-01  0.5735E-01
  7.160  0.7726E-01  0.5812E-01
  7.170  0.7759E-01  0.5890E-01
  7.180  0.7794E-01  0.5968E-01
  7.190  0.7830E-01  0.6046E-01
  7.200  0.7867E-01  0.6125E-01
  7.210  0.7905E-01  0.6204E-01
  7.220  0.7942E-01  0.6283E-01
  7.230  0.7978E-01  0.6363E-01
  7.240  0.8012E-01  0.6443E-01
  7.250  0.8045E-01  0.6524E-01
  7.260  0.8078E-01  0.6604E-01
  7.270  0.8110E-01  0.6685E-01
  7.280  0.8142E-01  0.6767E-01
  7.290  0.8189E-01  0.6849E-01
  7.300  0.8229E-01  0.6931E-01
  7.310  0.8263E-01  0.7014E-01
  7.320  0.8296E-01  0.7097E-01
  7.330  0.8328E-01  0.7180E-01
  7.340  0.8358E-01  0.7264E-01
  7.350  0.8388E-01  0.7347E-01
  7.360  0.8416E-01  0.7432E-01
  7.370  0.8442E-01  0.7516E-01
  7.380  0.8465E-01  0.7601E-01
  7.390  0.8485E-01  0.7685E-01
  7.400  0.8501E-01  0.7770E-01
  7.410  0.8549E-01  0.7856E-01
  7.420  0.8608E-01  0.7942E-01
  7.430  0.8667E-01  0.8029E-01
  7.440  0.8726E-01  0.8116E-01
  7.450  0.8784E-01  0.8204E-01
  7.460  0.8842E-01  0.8292E-01
  7.470  0.8899E-01  0.8381E-01
  7.480  0.8957E-01  0.8471E-01
  7.490  0.9013E-01  0.8561E-01
  7.500  0.9071E-01  0.8652E-01
  7.510  0.9130E-01  0.8743E-01
  7.520  0.9192E-01  0.8835E-01
  7.530  0.9256E-01  0.8927E-01
  7.540  0.9322E-01  0.9021E-01
  7.550  0.9390E-01  0.9115E-01
  7.560  0.9460E-01  0.9209E-01
  7.570  0.9530E-01  0.9304E-01
  7.580  0.9601E-01  0.9400E-01
  7.590  0.9673E-01  0.9497E-01
  7.600  0.9745E-01  0.9595E-01
  7.610  0.9818E-01  0.9693E-01
  7.620  0.9892E-01  0.9792E-01
  7.630  0.9960E-01  0.9891E-01
  7.640  0.1002E+00  0.9991E-01
  7.650  0.1007E+00  0.1009E+00
  7.660  0.1012E+00  0.1019E+00
  7.670  0.1016E+00  0.1030E+00
  7.680  0.1013E+00  0.1040E+00
  7.690  0.1016E+00  0.1050E+00
  7.700  0.1020E+00  0.1060E+00
  7.710  0.1024E+00  0.1070E+00
  7.720  0.1028E+00  0.1081E+00
  7.730  0.1032E+00  0.1091E+00
  7.740  0.1037E+00  0.1101E+00
  7.750  0.1042E+00  0.1112E+00
  7.760  0.1047E+00  0.1122E+00
  7.770  0.1053E+00  0.1133E+00
  7.780  0.1058E+00  0.1143E+00
  7.790  0.1064E+00  0.1154E+00
  7.800  0.1070E+00  0.1165E+00
  7.810  0.1075E+00  0.1175E+00
  7.820  0.1080E+00  0.1186E+00
  7.830  0.1085E+00  0.1197E+00
  7.840  0.1090E+00  0.1208E+00
  7.850  0.1096E+00  0.1219E+00
  7.860  0.1102E+00  0.1230E+00
  7.870  0.1107E+00  0.1241E+00
  7.880  0.1113E+00  0.1252E+00
  7.890  0.1118E+00  0.1263E+00
  7.900  0.1123E+00  0.1274E+00
  7.910  0.1128E+00  0.1286E+00
  7.920  0.1133E+00  0.1297E+00
  7.930  0.1138E+00  0.1308E+00
  7.940  0.1143E+00  0.1320E+00
  7.950  0.1147E+00  0.1331E+00
  7.960  0.1152E+00  0.1343E+00
  7.970  0.1156E+00  0.1354E+00
  7.980  0.1160E+00  0.1366E+00
  7.990  0.1164E+00  0.1378E+00
  8.000  0.1167E+00  0.1389E+00
  8.010  0.1175E+00  0.1401E+00
  8.020  0.1184E+00  0.1413E+00
  8.030  0.1192E+00  0.1425E+00
  8.040  0.1200E+00  0.1437E+00
  8.050  0.1208E+00  0.1449E+00
  8.060  0.1215E+00  0.1461E+00
  8.070  0.1224E+00  0.1473E+00
  8.080  0.1232E+00  0.1486E+00
  8.090  0.1240E+00  0.1498E+00
  8.100  0.1249E+00  0.1511E+00
  8.110  0.1258E+00  0.1523E+00
  8.120  0.1266E+00  0.1536E+00
  8.130  0.1275E+00  0.1548E+00
  8.140  0.1284E+00  0.1561E+00
  8.150  0.1294E+00  0.1574E+00
  8.160  0.1303E+00  0.1587E+00
  8.170  0.1312E+00  0.1600E+00
  8.180  0.1322E+00  0.1614E+00
  8.190  0.1330E+00  0.1627E+00
  8.200  0.1336E+00  0.1640E+00
  8.210  0.1342E+00  0.1654E+00
  8.220  0.1348E+00  0.1667E+00
  8.230  0.1353E+00  0.1681E+00
  8.240  0.1358E+00  0.1694E+00
  8.250  0.1363E+00  0.1708E+00
  8.260  0.1368E+00  0.1722E+00
  8.270  0.1372E+00  0.1735E+00
  8.280  0.1378E+00  0.1749E+00
  8.290  0.1384E+00  0.1763E+00
  8.300  0.1390E+00  0.1777E+00
  8.310  0.1397E+00  0.1791E+00
  8.320  0.1404E+00  0.1805E+00
  8.330  0.1412E+00  0.1819E+00
  8.340  0.1420E+00  0.1833E+00
  8.350  0.1428E+00  0.1847E+00
  8.360  0.1437E+00  0.1862E+00
  8.370  0.1446E+00  0.1876E+00
  8.380  0.1456E+00  0.1891E+00
  8.390  0.1465E+00  0.1905E+00
  8.400  0.1474E+00  0.1920E+00
  8.410  0.1483E+00  0.1935E+00
  8.420  0.1491E+00  0.1950E+00
  8.430  0.1500E+00  0.1965E+00
  8.440  0.1509E+00  0.1980E+00
  8.450  0.1518E+00  0.1995E+00
  8.460  0.1527E+00  0.2011E+00
  8.470  0.1535E+00  0.2026E+00
  8.480  0.1544E+00  0.2041E+00
  8.490  0.1552E+00  0.2057E+00
  8.500  0.1560E+00  0.2072E+00
  8.510  0.1567E+00  0.2088E+00
  8.520  0.1575E+00  0.2104E+00
  8.530  0.1582E+00  0.2120E+00
  8.540  0.1588E+00  0.2136E+00
  8.550  0.1595E+00  0.2151E+00
  8.560  0.1601E+00  0.2167E+00
  8.570  0.1607E+00  0.2184E+00
  8.580  0.1619E+00  0.2200E+00
  8.590  0.1632E+00  0.2216E+00
  8.600  0.1645E+00  0.2233E+00
  8.610  0.1658E+00  0.2249E+00
  8.620  0.1671E+00  0.2266E+00
  8.630  0.1683E+00  0.2283E+00
  8.640  0.1696E+00  0.2300E+00
  8.650  0.1709E+00  0.2317E+00
  8.660  0.1722E+00  0.2334E+00
  8.670  0.1735E+00  0.2351E+00
  8.680  0.1748E+00  0.2369E+00
  8.690  0.1761E+00  0.2386E+00
  8.700  0.1774E+00  0.2404E+00
  8.710  0.1788E+00  0.2422E+00
  8.720  0.1801E+00  0.2440E+00
  8.730  0.1815E+00  0.2458E+00
  8.740  0.1828E+00  0.2476E+00
  8.750  0.1842E+00  0.2495E+00
  8.760  0.1855E+00  0.2513E+00
  8.770  0.1868E+00  0.2532E+00
  8.780  0.1881E+00  0.2551E+00
  8.790  0.1894E+00  0.2570E+00
  8.800  0.1908E+00  0.2589E+00
  8.810  0.1922E+00  0.2608E+00
  8.820  0.1936E+00  0.2627E+00
  8.830  0.1951E+00  0.2647E+00
  8.840  0.1966E+00  0.2667E+00
  8.850  0.1982E+00  0.2686E+00
  8.860  0.1996E+00  0.2706E+00
  8.870  0.2012E+00  0.2727E+00
  8.880  0.2029E+00  0.2747E+00
  8.890  0.2046E+00  0.2767E+00
  8.900  0.2064E+00  0.2788E+00
  8.910  0.2083E+00  0.2809E+00
  8.920  0.2102E+00  0.2830E+00
  8.930  0.2121E+00  0.2851E+00
  8.940  0.2141E+00  0.2872E+00
  8.950  0.2160E+00  0.2894E+00
  8.960  0.2180E+00  0.2916E+00
  8.970  0.2199E+00  0.2938E+00
  8.980  0.2217E+00  0.2960E+00
  8.990  0.2233E+00  0.2982E+00
  9.000  0.2245E+00  0.3005E+00
  9.010  0.2254E+00  0.3027E+00
  9.020  0.2264E+00  0.3050E+00
  9.030  0.2294E+00  0.3073E+00
  9.040  0.2322E+00  0.3096E+00
  9.050  0.2348E+00  0.3120E+00
  9.060  0.2373E+00  0.3143E+00
  9.070  0.2398E+00  0.3167E+00
  9.080  0.2422E+00  0.3191E+00
  9.090  0.2446E+00  0.3216E+00
  9.100  0.2469E+00  0.3241E+00
  9.110  0.2492E+00  0.3266E+00
  9.120  0.2515E+00  0.3291E+00
  9.130  0.2537E+00  0.3316E+00
  9.140  0.2557E+00  0.3342E+00
  9.150  0.2577E+00  0.3367E+00
  9.160  0.2596E+00  0.3393E+00
  9.170  0.2616E+00  0.3420E+00
  9.180  0.2643E+00  0.3446E+00
  9.190  0.2676E+00  0.3473E+00
  9.200  0.2713E+00  0.3500E+00
  9.210  0.2753E+00  0.3527E+00
  9.220  0.2797E+00  0.3555E+00
  9.230  0.2843E+00  0.3584E+00
  9.240  0.2893E+00  0.3613E+00
  9.250  0.2946E+00  0.3642E+00
  9.260  0.3002E+00  0.3672E+00
  9.270  0.3061E+00  0.3703E+00
  9.280  0.3135E+00  0.3734E+00
  9.290  0.3374E+00  0.3768E+00
  9.300  0.3459E+00  0.3802E+00
  9.310  0.3547E+00  0.3838E+00
  9.320  0.3640E+00  0.3874E+00
  9.330  0.3734E+00  0.3912E+00
  9.340  0.3803E+00  0.3950E+00
  9.350  0.4040E+00  0.3990E+00
  9.360  0.4358E+00  0.4034E+00
  9.370  0.4699E+00  0.4081E+00
  9.380  0.5084E+00  0.4132E+00
  9.390  0.5504E+00  0.4187E+00
  9.400  0.6307E+00  0.4250E+00
  9.410  0.6664E+00  0.4316E+00
  9.420  0.6162E+00  0.4378E+00
  9.430  0.6188E+00  0.4440E+00
  9.440  0.6216E+00  0.4502E+00
  9.450  0.6239E+00  0.4564E+00
  9.460  0.6263E+00  0.4627E+00
  9.470  0.6285E+00  0.4690E+00
  9.480  0.6306E+00  0.4753E+00
  9.490  0.6326E+00  0.4816E+00
  9.500  0.6345E+00  0.4880E+00
  9.510  0.6373E+00  0.4943E+00
  9.520  0.6435E+00  0.5008E+00
  9.530  0.6519E+00  0.5073E+00
  9.540  0.6653E+00  0.5139E+00
  9.550  0.6705E+00  0.5206E+00
  9.560  0.6630E+00  0.5273E+00
  9.570  0.6514E+00  0.5338E+00
  9.580  0.6415E+00  0.5402E+00
  9.590  0.6346E+00  0.5465E+00
  9.600  0.6293E+00  0.5528E+00
  9.610  0.6258E+00  0.5591E+00
  9.620  0.6245E+00  0.5653E+00
  9.630  0.6261E+00  0.5716E+00
  9.640  0.6285E+00  0.5779E+00
  9.650  0.6306E+00  0.5842E+00
  9.660  0.6325E+00  0.5905E+00
  9.670  0.6342E+00  0.5969E+00
  9.680  0.6356E+00  0.6032E+00
  9.690  0.6367E+00  0.6096E+00
  9.700  0.6376E+00  0.6160E+00
  9.710  0.6379E+00  0.6223E+00
  9.720  0.6378E+00  0.6287E+00
  9.730  0.6389E+00  0.6351E+00
  9.740  0.6438E+00  0.6415E+00
  9.750  0.6490E+00  0.6480E+00
  9.760  0.6547E+00  0.6546E+00
  9.770  0.6605E+00  0.6612E+00
  9.780  0.6617E+00  0.6678E+00
  9.790  0.6585E+00  0.6744E+00
  9.800  0.6520E+00  0.6809E+00
  9.810  0.6518E+00  0.6874E+00
  9.820  0.6470E+00  0.6939E+00
  9.830  0.6445E+00  0.7003E+00
  9.840  0.6449E+00  0.7068E+00
  9.850  0.6478E+00  0.7133E+00
  9.860  0.6523E+00  0.7198E+00
  9.870  0.6691E+00  0.7265E+00
  9.880  0.6838E+00  0.7333E+00
  9.890  0.6888E+00  0.7402E+00
  9.900  0.6915E+00  0.7471E+00
  9.910  0.6937E+00  0.7541E+00
  9.920  0.6961E+00  0.7610E+00
  9.930  0.6993E+00  0.7680E+00
  9.940  0.7071E+00  0.7751E+00
  9.950  0.7147E+00  0.7822E+00
  9.960  0.7231E+00  0.7895E+00
  9.970  0.7311E+00  0.7968E+00
  9.980  0.7398E+00  0.8042E+00
  9.990  0.7479E+00  0.8117E+00
 10.000  0.7526E+00  0.8192E+00
 10.010  0.7557E+00  0.8267E+00
 10.020  0.7567E+00  0.8343E+00
 10.030  0.7560E+00  0.8419E+00
 10.040  0.7615E+00  0.8495E+00
 10.050  0.7679E+00  0.8572E+00
 10.060  0.7745E+00  0.8649E+00
 10.070  0.7811E+00  0.8727E+00
 10.080  0.7847E+00  0.8806E+00
 10.090  0.7820E+00  0.8884E+00
 10.100  0.7795E+00  0.8962E+00
 10.110  0.7781E+00  0.9040E+00
 10.120  0.7800E+00  0.9118E+00
 10.130  0.7817E+00  0.9196E+00
 10.140  0.7807E+00  0.9274E+00
 10.150  0.7860E+00  0.9352E+00
 10.160  0.7919E+00  0.9432E+00
 10.170  0.7973E+00  0.9511E+00
 10.180  0.8002E+00  0.9591E+00
 10.190  0.8028E+00  0.9672E+00
 10.200  0.8054E+00  0.9752E+00
 10.210  0.8004E+00  0.9832E+00
 10.220  0.8020E+00  0.9912E+00
 10.230  0.8046E+00  0.9993E+00
 10.240  0.8082E+00  0.1007E+01
 10.250  0.8124E+00  0.1015E+01
 10.260  0.8168E+00  0.1024E+01
 10.270  0.8214E+00  0.1032E+01
 10.280  0.8263E+00  0.1040E+01
 10.290  0.8314E+00  0.1048E+01
 10.300  0.8370E+00  0.1057E+01
 10.310  0.8431E+00  0.1065E+01
 10.320  0.8496E+00  0.1074E+01
 10.330  0.8565E+00  0.1082E+01
 10.340  0.8623E+00  0.1091E+01
 10.350  0.8680E+00  0.1100E+01
 10.360  0.8739E+00  0.1108E+01
 10.370  0.8825E+00  0.1117E+01
 10.380  0.8917E+00  0.1126E+01
 10.390  0.9009E+00  0.1135E+01
 10.400  0.9089E+00  0.1144E+01
 10.410  0.9147E+00  0.1153E+01
 10.420  0.9200E+00  0.1163E+01
 10.430  0.9227E+00  0.1172E+01
 10.440  0.9226E+00  0.1181E+01
 10.450  0.9216E+00  0.1190E+01
 10.460  0.9183E+00  0.1199E+01
 10.470  0.9165E+00  0.1209E+01
 10.480  0.9160E+00  0.1218E+01
 10.490  0.9166E+00  0.1227E+01
 10.500  0.9182E+00  0.1236E+01
 10.510  0.9256E+00  0.1245E+01
 10.520  0.9335E+00  0.1255E+01
 10.530  0.9415E+00  0.1264E+01
 10.540  0.9495E+00  0.1274E+01
 10.550  0.9582E+00  0.1283E+01
 10.560  0.9666E+00  0.1293E+01
 10.570  0.9745E+00  0.1303E+01
 10.580  0.9820E+00  0.1312E+01
 10.590  0.9895E+00  0.1322E+01
 10.600  0.9968E+00  0.1332E+01
 10.610  0.1005E+01  0.1342E+01
 10.620  0.1013E+01  0.1352E+01
 10.630  0.1025E+01  0.1363E+01
 10.640  0.1035E+01  0.1373E+01
 10.650  0.1046E+01  0.1383E+01
 10.660  0.1062E+01  0.1394E+01
 10.670  0.1077E+01  0.1405E+01
 10.680  0.1090E+01  0.1416E+01
 10.690  0.1101E+01  0.1427E+01
 10.700  0.1112E+01  0.1438E+01
 10.710  0.1127E+01  0.1449E+01
 10.720  0.1146E+01  0.1461E+01
 10.730  0.1167E+01  0.1472E+01
 10.740  0.1198E+01  0.1484E+01
 10.750  0.1224E+01  0.1497E+01
 10.760  0.1252E+01  0.1509E+01
 10.770  0.1267E+01  0.1522E+01
 10.780  0.1253E+01  0.1534E+01
 10.790  0.1238E+01  0.1547E+01
 10.800  0.1234E+01  0.1559E+01
 10.810  0.1235E+01  0.1571E+01
 10.820  0.1243E+01  0.1584E+01
 10.830  0.1250E+01  0.1596E+01
 10.840  0.1287E+01  0.1609E+01
 10.850  0.1248E+01  0.1622E+01
 10.860  0.1232E+01  0.1634E+01
 10.870  0.1231E+01  0.1646E+01
 10.880  0.1235E+01  0.1659E+01
 10.890  0.1231E+01  0.1671E+01
 10.900  0.1230E+01  0.1683E+01
 10.910  0.1231E+01  0.1696E+01
 10.920  0.1232E+01  0.1708E+01
 10.930  0.1232E+01  0.1720E+01
 10.940  0.1230E+01  0.1732E+01
 10.950  0.1229E+01  0.1745E+01
 10.960  0.1227E+01  0.1757E+01
 10.970  0.1224E+01  0.1769E+01
 10.980  0.1218E+01  0.1781E+01
 10.990  0.1210E+01  0.1794E+01
 11.000  0.1203E+01  0.1806E+01
 11.010  0.1145E+01  0.1817E+01
 11.020  0.1075E+01  0.1828E+01
 11.030  0.1008E+01  0.1838E+01
 11.040  0.9648E+00  0.1847E+01
 11.050  0.9451E+00  0.1857E+01
 11.060  0.9261E+00  0.1866E+01
 11.070  0.9088E+00  0.1875E+01
 11.080  0.8931E+00  0.1884E+01
 11.090  0.8781E+00  0.1893E+01
 11.100  0.8704E+00  0.1902E+01
 11.110  0.8660E+00  0.1910E+01
 11.120  0.8640E+00  0.1919E+01
 11.130  0.8596E+00  0.1928E+01
 11.140  0.8374E+00  0.1936E+01
 11.150  0.8061E+00  0.1944E+01
 11.160  0.7809E+00  0.1952E+01
 11.170  0.7562E+00  0.1959E+01
 11.180  0.7298E+00  0.1967E+01
 11.190  0.7451E+00  0.1974E+01
 11.200  0.6695E+00  0.1981E+01
 11.210  0.6437E+00  0.1987E+01
 11.220  0.6225E+00  0.1994E+01
